Spectra ASCII data for data set...
Kinetic Energy(eV)	Binding Energy(eV)	Intensity(Counts)	Intensity(Counts/sec)	Transmission Value
386.690000	1100.000000	6815	17037.500000	5.764027
387.690000	1099.000000	6811	17027.500000	5.761464
388.690000	1098.000000	6820	17050.000000	5.758900
389.690000	1097.000000	6966	17415.000000	5.756337
390.690000	1096.000000	6919	17297.500000	5.753774
391.690000	1095.000000	6852	17130.000000	5.751211
392.690000	1094.000000	6840	17100.000000	5.748648
393.690000	1093.000000	6878	17195.000000	5.746085
394.690000	1092.000000	6939	17347.500000	5.743522
395.690000	1091.000000	6977	17442.500000	5.740959
396.690000	1090.000000	6966	17415.000000	5.738396
397.690000	1089.000000	6928	17320.000000	5.735833
398.690000	1088.000000	6916	17290.000000	5.733269
399.690000	1087.000000	6978	17445.000000	5.730706
400.690000	1086.000000	7026	17565.000000	5.728143
401.690000	1085.000000	7001	17502.500000	5.725580
402.690000	1084.000000	7045	17612.500000	5.723017
403.690000	1083.000000	6980	17450.000000	5.720454
404.690000	1082.000000	7000	17500.000000	5.717891
405.690000	1081.000000	6905	17262.500000	5.715328
406.690000	1080.000000	7005	17512.500000	5.712765
407.690000	1079.000000	7148	17870.000000	5.710201
408.690000	1078.000000	7018	17545.000000	5.707638
409.690000	1077.000000	7117	17792.500000	5.705075
410.690000	1076.000000	7002	17505.000000	5.702512
411.690000	1075.000000	7045	17612.500000	5.699949
412.690000	1074.000000	6980	17450.000000	5.697386
413.690000	1073.000000	7044	17610.000000	5.694823
414.690000	1072.000000	7056	17640.000000	5.692260
415.690000	1071.000000	7063	17657.500000	5.689697
416.690000	1070.000000	7042	17605.000000	5.687134
417.690000	1069.000000	7061	17652.500000	5.684570
418.690000	1068.000000	7075	17687.500000	5.682007
419.690000	1067.000000	7192	17980.000000	5.679444
420.690000	1066.000000	7128	17820.000000	5.676881
421.690000	1065.000000	7085	17712.500000	5.674318
422.690000	1064.000000	7113	17782.500000	5.671755
423.690000	1063.000000	7208	18020.000000	5.669192
424.690000	1062.000000	7118	17795.000000	5.666629
425.690000	1061.000000	7033	17582.500000	5.664066
426.690000	1060.000000	7099	17747.500000	5.661502
427.690000	1059.000000	7048	17620.000000	5.658939
428.690000	1058.000000	7129	17822.500000	5.656376
429.690000	1057.000000	7114	17785.000000	5.653813
430.690000	1056.000000	7281	18202.500000	5.651250
431.690000	1055.000000	7331	18327.500000	5.648687
432.690000	1054.000000	7401	18502.500000	5.646124
433.690000	1053.000000	7336	18340.000000	5.643561
434.690000	1052.000000	7188	17970.000000	5.640998
435.690000	1051.000000	7197	17992.500000	5.638435
436.690000	1050.000000	7367	18417.500000	5.635871
437.690000	1049.000000	7125	17812.500000	5.633308
438.690000	1048.000000	7282	18205.000000	5.630745
439.690000	1047.000000	7352	18380.000000	5.628182
440.690000	1046.000000	7396	18490.000000	5.625619
441.690000	1045.000000	7269	18172.500000	5.623056
442.690000	1044.000000	7226	18065.000000	5.620493
443.690000	1043.000000	7280	18200.000000	5.617930
444.690000	1042.000000	7376	18440.000000	5.615367
445.690000	1041.000000	7417	18542.500000	5.612803
446.690000	1040.000000	7462	18655.000000	5.610240
447.690000	1039.000000	7330	18325.000000	5.607677
448.690000	1038.000000	7409	18522.500000	5.605114
449.690000	1037.000000	7384	18460.000000	5.602551
450.690000	1036.000000	7428	18570.000000	5.599988
451.690000	1035.000000	7417	18542.500000	5.597425
452.690000	1034.000000	7306	18265.000000	5.594862
453.690000	1033.000000	7458	18645.000000	5.592299
454.690000	1032.000000	7349	18372.500000	5.589736
455.690000	1031.000000	7375	18437.500000	5.587172
456.690000	1030.000000	7332	18330.000000	5.584180
457.690000	1029.000000	7442	18605.000000	5.580967
458.690000	1028.000000	7477	18692.500000	5.577754
459.690000	1027.000000	7455	18637.500000	5.574540
460.690000	1026.000000	7399	18497.500000	5.571327
461.690000	1025.000000	7544	18860.000000	5.568114
462.690000	1024.000000	7639	19097.500000	5.564900
463.690000	1023.000000	7506	18765.000000	5.561687
464.690000	1022.000000	7584	18960.000000	5.558474
465.690000	1021.000000	7553	18882.500000	5.555260
466.690000	1020.000000	7666	19165.000000	5.552047
467.690000	1019.000000	7564	18910.000000	5.548834
468.690000	1018.000000	7635	19087.500000	5.545620
469.690000	1017.000000	7662	19155.000000	5.542407
470.690000	1016.000000	7660	19150.000000	5.539194
471.690000	1015.000000	7607	19017.500000	5.535981
472.690000	1014.000000	7692	19230.000000	5.532767
473.690000	1013.000000	7788	19470.000000	5.529554
474.690000	1012.000000	7766	19415.000000	5.526341
475.690000	1011.000000	7591	18977.500000	5.523127
476.690000	1010.000000	7662	19155.000000	5.519914
477.690000	1009.000000	7598	18995.000000	5.516701
478.690000	1008.000000	7636	19090.000000	5.513487
479.690000	1007.000000	7535	18837.500000	5.510274
480.690000	1006.000000	7679	19197.500000	5.507061
481.690000	1005.000000	7844	19610.000000	5.503847
482.690000	1004.000000	7726	19315.000000	5.500634
483.690000	1003.000000	7811	19527.500000	5.497421
484.690000	1002.000000	7938	19845.000000	5.494208
485.690000	1001.000000	8069	20172.500000	5.490994
486.690000	1000.000000	7866	19665.000000	5.487781
487.690000	999.000000	7922	19805.000000	5.484568
488.690000	998.000000	8042	20105.000000	5.481354
489.690000	997.000000	8029	20072.500000	5.478141
490.690000	996.000000	8032	20080.000000	5.474928
491.690000	995.000000	8053	20132.500000	5.471714
492.690000	994.000000	8021	20052.500000	5.468501
493.690000	993.000000	7970	19925.000000	5.465288
494.690000	992.000000	7922	19805.000000	5.462074
495.690000	991.000000	7874	19685.000000	5.458861
496.690000	990.000000	7831	19577.500000	5.455648
497.690000	989.000000	7746	19365.000000	5.452435
498.690000	988.000000	7851	19627.500000	5.449221
499.690000	987.000000	7744	19360.000000	5.446008
500.690000	986.000000	7657	19142.500000	5.442795
501.690000	985.000000	7660	19150.000000	5.439581
502.690000	984.000000	7531	18827.500000	5.436368
503.690000	983.000000	7510	18775.000000	5.433155
504.690000	982.000000	7580	18950.000000	5.429941
505.690000	981.000000	7502	18755.000000	5.426728
506.690000	980.000000	7669	19172.500000	5.423515
507.690000	979.000000	7894	19735.000000	5.420301
508.690000	978.000000	8030	20075.000000	5.417088
509.690000	977.000000	8031	20077.500000	5.413875
510.690000	976.000000	8386	20965.000000	5.410662
511.690000	975.000000	8617	21542.500000	5.407448
512.690000	974.000000	8868	22170.000000	5.404235
513.690000	973.000000	8818	22045.000000	5.401022
514.690000	972.000000	8489	21222.500000	5.397808
515.690000	971.000000	8295	20737.500000	5.394595
516.690000	970.000000	8280	20700.000000	5.391382
517.690000	969.000000	8149	20372.500000	5.388168
518.690000	968.000000	7935	19837.500000	5.384955
519.690000	967.000000	7786	19465.000000	5.381742
520.690000	966.000000	7398	18495.000000	5.378528
521.690000	965.000000	7190	17975.000000	5.375315
522.690000	964.000000	7000	17500.000000	5.372102
523.690000	963.000000	6962	17405.000000	5.368889
524.690000	962.000000	6798	16995.000000	5.365675
525.690000	961.000000	6689	16722.500000	5.362462
526.690000	960.000000	6681	16702.500000	5.359249
527.690000	959.000000	6717	16792.500000	5.356035
528.690000	958.000000	6642	16605.000000	5.352822
529.690000	957.000000	6621	16552.500000	5.349609
530.690000	956.000000	6684	16710.000000	5.346395
531.690000	955.000000	6713	16782.500000	5.343182
532.690000	954.000000	6681	16702.500000	5.339969
533.690000	953.000000	6742	16855.000000	5.336755
534.690000	952.000000	6693	16732.500000	5.333542
535.690000	951.000000	6846	17115.000000	5.330329
536.690000	950.000000	6830	17075.000000	5.327116
537.690000	949.000000	6746	16865.000000	5.323902
538.690000	948.000000	6673	16682.500000	5.320689
539.690000	947.000000	6774	16935.000000	5.317476
540.690000	946.000000	6709	16772.500000	5.314262
541.690000	945.000000	6813	17032.500000	5.311049
542.690000	944.000000	6807	17017.500000	5.307836
543.690000	943.000000	6815	17037.500000	5.304622
544.690000	942.000000	6862	17155.000000	5.301409
545.690000	941.000000	6872	17180.000000	5.298196
546.690000	940.000000	6747	16867.500000	5.294982
547.690000	939.000000	6821	17052.500000	5.291769
548.690000	938.000000	6875	17187.500000	5.288556
549.690000	937.000000	6979	17447.500000	5.285342
550.690000	936.000000	6874	17185.000000	5.282129
551.690000	935.000000	6900	17250.000000	5.278916
552.690000	934.000000	6780	16950.000000	5.275703
553.690000	933.000000	6802	17005.000000	5.272489
554.690000	932.000000	6875	17187.500000	5.269276
555.690000	931.000000	6882	17205.000000	5.266063
556.690000	930.000000	6821	17052.500000	5.262849
557.690000	929.000000	6882	17205.000000	5.259636
558.690000	928.000000	6906	17265.000000	5.256423
559.690000	927.000000	6907	17267.500000	5.253209
560.690000	926.000000	6908	17270.000000	5.249996
561.690000	925.000000	7006	17515.000000	5.246783
562.690000	924.000000	6985	17462.500000	5.243569
563.690000	923.000000	6858	17145.000000	5.240356
564.690000	922.000000	6975	17437.500000	5.237143
565.690000	921.000000	6938	17345.000000	5.233930
566.690000	920.000000	6831	17077.500000	5.230716
567.690000	919.000000	6908	17270.000000	5.227503
568.690000	918.000000	6806	17015.000000	5.224290
569.690000	917.000000	6813	17032.500000	5.221076
570.690000	916.000000	6783	16957.500000	5.217863
571.690000	915.000000	6857	17142.500000	5.214650
572.690000	914.000000	6994	17485.000000	5.211436
573.690000	913.000000	6906	17265.000000	5.208223
574.690000	912.000000	6941	17352.500000	5.205010
575.690000	911.000000	6829	17072.500000	5.201796
576.690000	910.000000	6831	17077.500000	5.198583
577.690000	909.000000	6867	17167.500000	5.195370
578.690000	908.000000	6981	17452.500000	5.192157
579.690000	907.000000	6984	17460.000000	5.188943
580.690000	906.000000	7028	17570.000000	5.185730
581.690000	905.000000	6918	17295.000000	5.182517
582.690000	904.000000	7040	17600.000000	5.179303
583.690000	903.000000	7008	17520.000000	5.176090
584.690000	902.000000	7055	17637.500000	5.172877
585.690000	901.000000	7104	17760.000000	5.169663
586.690000	900.000000	6995	17487.500000	5.166450
587.690000	899.000000	7038	17595.000000	5.163237
588.690000	898.000000	6954	17385.000000	5.160023
589.690000	897.000000	7069	17672.500000	5.156810
590.690000	896.000000	7075	17687.500000	5.153597
591.690000	895.000000	7101	17752.500000	5.150384
592.690000	894.000000	7184	17960.000000	5.147170
593.690000	893.000000	6965	17412.500000	5.143957
594.690000	892.000000	7016	17540.000000	5.140744
595.690000	891.000000	6983	17457.500000	5.137530
596.690000	890.000000	6978	17445.000000	5.134317
597.690000	889.000000	7021	17552.500000	5.131104
598.690000	888.000000	6929	17322.500000	5.127890
599.690000	887.000000	6847	17117.500000	5.124677
600.690000	886.000000	6555	16387.500000	5.121464
601.690000	885.000000	6497	16242.500000	5.118250
602.690000	884.000000	6486	16215.000000	5.115037
603.690000	883.000000	6349	15872.500000	5.111824
604.690000	882.000000	6462	16155.000000	5.108611
605.690000	881.000000	6406	16015.000000	5.105397
606.690000	880.000000	6271	15677.500000	5.102184
607.690000	879.000000	6244	15610.000000	5.098971
608.690000	878.000000	6362	15905.000000	5.095757
609.690000	877.000000	6446	16115.000000	5.092544
610.690000	876.000000	6284	15710.000000	5.089331
611.690000	875.000000	6368	15920.000000	5.086117
612.690000	874.000000	6351	15877.500000	5.082904
613.690000	873.000000	6203	15507.500000	5.079691
614.690000	872.000000	6325	15812.500000	5.076477
615.690000	871.000000	6351	15877.500000	5.073264
616.690000	870.000000	6299	15747.500000	5.070051
617.690000	869.000000	6251	15627.500000	5.066838
618.690000	868.000000	6313	15782.500000	5.063624
619.690000	867.000000	6294	15735.000000	5.060411
620.690000	866.000000	6219	15547.500000	5.057198
621.690000	865.000000	6214	15535.000000	5.053984
622.690000	864.000000	6230	15575.000000	5.050771
623.690000	863.000000	6251	15627.500000	5.047558
624.690000	862.000000	6302	15755.000000	5.044344
625.690000	861.000000	6221	15552.500000	5.041131
626.690000	860.000000	6241	15602.500000	5.037918
627.690000	859.000000	6417	16042.500000	5.034704
628.690000	858.000000	6308	15770.000000	5.031491
629.690000	857.000000	6238	15595.000000	5.028278
630.690000	856.000000	6472	16180.000000	5.025065
631.690000	855.000000	6327	15817.500000	5.021851
632.690000	854.000000	6424	16060.000000	5.018638
633.690000	853.000000	6381	15952.500000	5.015425
634.690000	852.000000	6610	16525.000000	5.012211
635.690000	851.000000	6556	16390.000000	5.008998
636.690000	850.000000	6524	16310.000000	5.005785
637.690000	849.000000	6443	16107.500000	5.002571
638.690000	848.000000	6548	16370.000000	4.999358
639.690000	847.000000	6658	16645.000000	4.996145
640.690000	846.000000	6550	16375.000000	4.992931
641.690000	845.000000	6586	16465.000000	4.989718
642.690000	844.000000	6674	16685.000000	4.986505
643.690000	843.000000	6514	16285.000000	4.983292
644.690000	842.000000	6589	16472.500000	4.980078
645.690000	841.000000	6468	16170.000000	4.976865
646.690000	840.000000	6296	15740.000000	4.973652
647.690000	839.000000	6325	15812.500000	4.970438
648.690000	838.000000	6272	15680.000000	4.967225
649.690000	837.000000	6176	15440.000000	4.964012
650.690000	836.000000	6097	15242.500000	4.960798
651.690000	835.000000	6031	15077.500000	4.957585
652.690000	834.000000	5908	14770.000000	4.954372
653.690000	833.000000	5718	14295.000000	4.951158
654.690000	832.000000	5699	14247.500000	4.947945
655.690000	831.000000	5489	13722.500000	4.944732
656.690000	830.000000	5317	13292.500000	4.941519
657.690000	829.000000	5293	13232.500000	4.938305
658.690000	828.000000	5225	13062.500000	4.935092
659.690000	827.000000	5179	12947.500000	4.931879
660.690000	826.000000	5179	12947.500000	4.928665
661.690000	825.000000	5247	13117.500000	4.925452
662.690000	824.000000	5085	12712.500000	4.922239
663.690000	823.000000	5211	13027.500000	4.919025
664.690000	822.000000	5144	12860.000000	4.915812
665.690000	821.000000	5066	12665.000000	4.913919
666.690000	820.000000	5158	12895.000000	4.912454
667.690000	819.000000	5197	12992.500000	4.910989
668.690000	818.000000	5165	12912.500000	4.909524
669.690000	817.000000	5116	12790.000000	4.908058
670.690000	816.000000	5101	12752.500000	4.906593
671.690000	815.000000	5104	12760.000000	4.905128
672.690000	814.000000	5187	12967.500000	4.903663
673.690000	813.000000	5069	12672.500000	4.902197
674.690000	812.000000	5078	12695.000000	4.900732
675.690000	811.000000	5268	13170.000000	4.899267
676.690000	810.000000	5184	12960.000000	4.897802
677.690000	809.000000	5293	13232.500000	4.896336
678.690000	808.000000	5107	12767.500000	4.894871
679.690000	807.000000	5048	12620.000000	4.893406
680.690000	806.000000	5092	12730.000000	4.891941
681.690000	805.000000	5117	12792.500000	4.890475
682.690000	804.000000	5208	13020.000000	4.889010
683.690000	803.000000	5130	12825.000000	4.887545
684.690000	802.000000	5153	12882.500000	4.886080
685.690000	801.000000	5070	12675.000000	4.884614
686.690000	800.000000	5115	12787.500000	4.883149
687.690000	799.000000	5055	12637.500000	4.881684
688.690000	798.000000	5072	12680.000000	4.880219
689.690000	797.000000	5156	12890.000000	4.878753
690.690000	796.000000	5126	12815.000000	4.877288
691.690000	795.000000	5097	12742.500000	4.875823
692.690000	794.000000	5074	12685.000000	4.874358
693.690000	793.000000	5225	13062.500000	4.872892
694.690000	792.000000	5211	13027.500000	4.871427
695.690000	791.000000	5236	13090.000000	4.869962
696.690000	790.000000	5239	13097.500000	4.868497
697.690000	789.000000	5227	13067.500000	4.867031
698.690000	788.000000	5454	13635.000000	4.865566
699.690000	787.000000	5392	13480.000000	4.864101
700.690000	786.000000	5518	13795.000000	4.862636
701.690000	785.000000	5578	13945.000000	4.861170
702.690000	784.000000	5627	14067.500000	4.859705
703.690000	783.000000	5633	14082.500000	4.858240
704.690000	782.000000	5560	13900.000000	4.856775
705.690000	781.000000	5500	13750.000000	4.855309
706.690000	780.000000	5388	13470.000000	4.853844
707.690000	779.000000	5383	13457.500000	4.852379
708.690000	778.000000	5325	13312.500000	4.850914
709.690000	777.000000	5206	13015.000000	4.849448
710.690000	776.000000	5070	12675.000000	4.847983
711.690000	775.000000	5085	12712.500000	4.846518
712.690000	774.000000	5003	12507.500000	4.845053
713.690000	773.000000	4984	12460.000000	4.843587
714.690000	772.000000	4980	12450.000000	4.842122
715.690000	771.000000	5022	12555.000000	4.840657
716.690000	770.000000	5044	12610.000000	4.839192
717.690000	769.000000	4990	12475.000000	4.837726
718.690000	768.000000	5047	12617.500000	4.836261
719.690000	767.000000	4976	12440.000000	4.834796
720.690000	766.000000	5008	12520.000000	4.833331
721.690000	765.000000	4951	12377.500000	4.831865
722.690000	764.000000	4942	12355.000000	4.830400
723.690000	763.000000	4953	12382.500000	4.828935
724.690000	762.000000	4909	12272.500000	4.827470
725.690000	761.000000	4867	12167.500000	4.826004
726.690000	760.000000	4852	12130.000000	4.824539
727.690000	759.000000	4854	12135.000000	4.823074
728.690000	758.000000	4977	12442.500000	4.821609
729.690000	757.000000	4869	12172.500000	4.820143
730.690000	756.000000	4854	12135.000000	4.818678
731.690000	755.000000	4896	12240.000000	4.817213
732.690000	754.000000	4925	12312.500000	4.815748
733.690000	753.000000	5005	12512.500000	4.814282
734.690000	752.000000	4921	12302.500000	4.812817
735.690000	751.000000	4967	12417.500000	4.811352
736.690000	750.000000	4903	12257.500000	4.809887
737.690000	749.000000	4956	12390.000000	4.808421
738.690000	748.000000	4929	12322.500000	4.806956
739.690000	747.000000	5037	12592.500000	4.805491
740.690000	746.000000	5161	12902.500000	4.804025
741.690000	745.000000	5071	12677.500000	4.802560
742.690000	744.000000	5032	12580.000000	4.801095
743.690000	743.000000	5048	12620.000000	4.799630
744.690000	742.000000	5149	12872.500000	4.798164
745.690000	741.000000	5170	12925.000000	4.796699
746.690000	740.000000	5041	12602.500000	4.795234
747.690000	739.000000	5182	12955.000000	4.793769
748.690000	738.000000	5190	12975.000000	4.792303
749.690000	737.000000	5019	12547.500000	4.790838
750.690000	736.000000	4958	12395.000000	4.789373
751.690000	735.000000	5034	12585.000000	4.787908
752.690000	734.000000	5084	12710.000000	4.786442
753.690000	733.000000	5076	12690.000000	4.784977
754.690000	732.000000	5297	13242.500000	4.783512
755.690000	731.000000	5236	13090.000000	4.782047
756.690000	730.000000	5264	13160.000000	4.780581
757.690000	729.000000	5333	13332.500000	4.779116
758.690000	728.000000	5323	13307.500000	4.777651
759.690000	727.000000	5356	13390.000000	4.776186
760.690000	726.000000	5359	13397.500000	4.774720
761.690000	725.000000	5576	13940.000000	4.773255
762.690000	724.000000	5763	14407.500000	4.771790
763.690000	723.000000	6088	15220.000000	4.770325
764.690000	722.000000	6221	15552.500000	4.768859
765.690000	721.000000	5929	14822.500000	4.767394
766.690000	720.000000	5490	13725.000000	4.765929
767.690000	719.000000	4760	11900.000000	4.764464
768.690000	718.000000	4561	11402.500000	4.762998
769.690000	717.000000	4685	11712.500000	4.761533
770.690000	716.000000	4750	11875.000000	4.760068
771.690000	715.000000	4825	12062.500000	4.758603
772.690000	714.000000	4831	12077.500000	4.757137
773.690000	713.000000	4878	12195.000000	4.755672
774.690000	712.000000	5224	13060.000000	4.754207
775.690000	711.000000	5386	13465.000000	4.752742
776.690000	710.000000	5799	14497.500000	4.751276
777.690000	709.000000	6408	16020.000000	4.749811
778.690000	708.000000	6325	15812.500000	4.748346
779.690000	707.000000	5242	13105.000000	4.746881
780.690000	706.000000	4024	10060.000000	4.745415
781.690000	705.000000	3109	7772.500000	4.743950
782.690000	704.000000	2879	7197.500000	4.742485
783.690000	703.000000	2830	7075.000000	4.741020
784.690000	702.000000	2764	6910.000000	4.739554
785.690000	701.000000	2698	6745.000000	4.738089
786.690000	700.000000	2732	6830.000000	4.736624
787.690000	699.000000	2767	6917.500000	4.735159
788.690000	698.000000	2783	6957.500000	4.733693
789.690000	697.000000	2771	6927.500000	4.732228
790.690000	696.000000	2865	7162.500000	4.730763
791.690000	695.000000	2800	7000.000000	4.729298
792.690000	694.000000	2803	7007.500000	4.727832
793.690000	693.000000	2812	7030.000000	4.726367
794.690000	692.000000	2797	6992.500000	4.724902
795.690000	691.000000	2825	7062.500000	4.723437
796.690000	690.000000	2793	6982.500000	4.721971
797.690000	689.000000	2783	6957.500000	4.720506
798.690000	688.000000	2770	6925.000000	4.719041
799.690000	687.000000	2771	6927.500000	4.717576
800.690000	686.000000	2761	6902.500000	4.716110
801.690000	685.000000	2767	6917.500000	4.714645
802.690000	684.000000	2778	6945.000000	4.713180
803.690000	683.000000	2764	6910.000000	4.711715
804.690000	682.000000	2816	7040.000000	4.710249
805.690000	681.000000	2772	6930.000000	4.708784
806.690000	680.000000	2798	6995.000000	4.707319
807.690000	679.000000	2810	7025.000000	4.705854
808.690000	678.000000	2815	7037.500000	4.704388
809.690000	677.000000	2793	6982.500000	4.702923
810.690000	676.000000	2752	6880.000000	4.701458
811.690000	675.000000	2772	6930.000000	4.699993
812.690000	674.000000	2762	6905.000000	4.698527
813.690000	673.000000	2851	7127.500000	4.697062
814.690000	672.000000	2862	7155.000000	4.695597
815.690000	671.000000	2844	7110.000000	4.694132
816.690000	670.000000	2896	7240.000000	4.692666
817.690000	669.000000	2863	7157.500000	4.691201
818.690000	668.000000	2781	6952.500000	4.689736
819.690000	667.000000	2820	7050.000000	4.688271
820.690000	666.000000	2837	7092.500000	4.686805
821.690000	665.000000	2813	7032.500000	4.685340
822.690000	664.000000	2820	7050.000000	4.683875
823.690000	663.000000	2847	7117.500000	4.682410
824.690000	662.000000	2922	7305.000000	4.680944
825.690000	661.000000	2864	7160.000000	4.679479
826.690000	660.000000	2873	7182.500000	4.678014
827.690000	659.000000	2798	6995.000000	4.676549
828.690000	658.000000	2795	6987.500000	4.675083
829.690000	657.000000	2828	7070.000000	4.673618
830.690000	656.000000	2796	6990.000000	4.672153
831.690000	655.000000	2862	7155.000000	4.670688
832.690000	654.000000	2850	7125.000000	4.669222
833.690000	653.000000	2914	7285.000000	4.667757
834.690000	652.000000	2921	7302.500000	4.666292
835.690000	651.000000	2865	7162.500000	4.664827
836.690000	650.000000	2877	7192.500000	4.663361
837.690000	649.000000	2859	7147.500000	4.661896
838.690000	648.000000	2850	7125.000000	4.660431
839.690000	647.000000	2878	7195.000000	4.658966
840.690000	646.000000	2968	7420.000000	4.657500
841.690000	645.000000	2870	7175.000000	4.656035
842.690000	644.000000	2860	7150.000000	4.654570
843.690000	643.000000	2887	7217.500000	4.653105
844.690000	642.000000	2832	7080.000000	4.651639
845.690000	641.000000	2818	7045.000000	4.650174
846.690000	640.000000	2890	7225.000000	4.648709
847.690000	639.000000	2816	7040.000000	4.647244
848.690000	638.000000	2810	7025.000000	4.645778
849.690000	637.000000	2915	7287.500000	4.644313
850.690000	636.000000	2888	7220.000000	4.642848
851.690000	635.000000	2924	7310.000000	4.641382
852.690000	634.000000	2953	7382.500000	4.639917
853.690000	633.000000	2910	7275.000000	4.638452
854.690000	632.000000	2814	7035.000000	4.636987
855.690000	631.000000	2941	7352.500000	4.635521
856.690000	630.000000	2955	7387.500000	4.634056
857.690000	629.000000	2916	7290.000000	4.632591
858.690000	628.000000	2990	7475.000000	4.631126
859.690000	627.000000	2966	7415.000000	4.629660
860.690000	626.000000	2974	7435.000000	4.628195
861.690000	625.000000	2945	7362.500000	4.626730
862.690000	624.000000	2921	7302.500000	4.625265
863.690000	623.000000	3047	7617.500000	4.623799
864.690000	622.000000	2955	7387.500000	4.622334
865.690000	621.000000	2995	7487.500000	4.620869
866.690000	620.000000	2981	7452.500000	4.619404
867.690000	619.000000	3014	7535.000000	4.617938
868.690000	618.000000	3021	7552.500000	4.616473
869.690000	617.000000	2928	7320.000000	4.615008
870.690000	616.000000	2983	7457.500000	4.613543
871.690000	615.000000	2964	7410.000000	4.612077
872.690000	614.000000	2992	7480.000000	4.610612
873.690000	613.000000	2987	7467.500000	4.609147
874.690000	612.000000	2982	7455.000000	4.607682
875.690000	611.000000	3007	7517.500000	4.606216
876.690000	610.000000	2977	7442.500000	4.604751
877.690000	609.000000	3058	7645.000000	4.603286
878.690000	608.000000	3042	7605.000000	4.601821
879.690000	607.000000	3003	7507.500000	4.600355
880.690000	606.000000	2988	7470.000000	4.598890
881.690000	605.000000	3004	7510.000000	4.597425
882.690000	604.000000	3015	7537.500000	4.595960
883.690000	603.000000	3030	7575.000000	4.594494
884.690000	602.000000	2996	7490.000000	4.593029
885.690000	601.000000	2968	7420.000000	4.591564
886.690000	600.000000	3042	7605.000000	4.590099
887.690000	599.000000	2992	7480.000000	4.588694
888.690000	598.000000	2942	7355.000000	4.587294
889.690000	597.000000	2988	7470.000000	4.585894
890.690000	596.000000	2935	7337.500000	4.584494
891.690000	595.000000	2986	7465.000000	4.583094
892.690000	594.000000	3025	7562.500000	4.581695
893.690000	593.000000	3051	7627.500000	4.580295
894.690000	592.000000	3004	7510.000000	4.578895
895.690000	591.000000	2984	7460.000000	4.577495
896.690000	590.000000	3065	7662.500000	4.576095
897.690000	589.000000	3075	7687.500000	4.574696
898.690000	588.000000	3076	7690.000000	4.573296
899.690000	587.000000	3050	7625.000000	4.571896
900.690000	586.000000	3094	7735.000000	4.570496
901.690000	585.000000	3006	7515.000000	4.569097
902.690000	584.000000	2995	7487.500000	4.567697
903.690000	583.000000	3027	7567.500000	4.566297
904.690000	582.000000	3099	7747.500000	4.564897
905.690000	581.000000	3008	7520.000000	4.563497
906.690000	580.000000	3067	7667.500000	4.562098
907.690000	579.000000	3054	7635.000000	4.560698
908.690000	578.000000	3077	7692.500000	4.559298
909.690000	577.000000	3114	7785.000000	4.557898
910.690000	576.000000	3111	7777.500000	4.556498
911.690000	575.000000	3041	7602.500000	4.555099
912.690000	574.000000	3087	7717.500000	4.553699
913.690000	573.000000	3049	7622.500000	4.552299
914.690000	572.000000	3100	7750.000000	4.550899
915.690000	571.000000	3073	7682.500000	4.549499
916.690000	570.000000	3113	7782.500000	4.548100
917.690000	569.000000	3091	7727.500000	4.546700
918.690000	568.000000	3063	7657.500000	4.545300
919.690000	567.000000	2973	7432.500000	4.543900
920.690000	566.000000	3060	7650.000000	4.542500
921.690000	565.000000	3025	7562.500000	4.541101
922.690000	564.000000	2961	7402.500000	4.539701
923.690000	563.000000	2933	7332.500000	4.538301
924.690000	562.000000	3010	7525.000000	4.536901
925.690000	561.000000	3087	7717.500000	4.535502
926.690000	560.000000	3017	7542.500000	4.534102
927.690000	559.000000	3167	7917.500000	4.532702
928.690000	558.000000	3096	7740.000000	4.531302
929.690000	557.000000	3113	7782.500000	4.529902
930.690000	556.000000	3218	8045.000000	4.528503
931.690000	555.000000	3159	7897.500000	4.527103
932.690000	554.000000	3273	8182.500000	4.525703
933.690000	553.000000	3245	8112.500000	4.524303
934.690000	552.000000	3192	7980.000000	4.522903
935.690000	551.000000	3176	7940.000000	4.521504
936.690000	550.000000	3164	7910.000000	4.520104
937.690000	549.000000	3176	7940.000000	4.518704
938.690000	548.000000	3070	7675.000000	4.517304
939.690000	547.000000	2968	7420.000000	4.515904
940.690000	546.000000	3063	7657.500000	4.514505
941.690000	545.000000	3142	7855.000000	4.513105
942.690000	544.000000	2988	7470.000000	4.511705
943.690000	543.000000	2828	7070.000000	4.510305
944.690000	542.000000	2637	6592.500000	4.508906
945.690000	541.000000	2467	6167.500000	4.507506
946.690000	540.000000	2496	6240.000000	4.506106
947.690000	539.000000	2473	6182.500000	4.504706
948.690000	538.000000	2349	5872.500000	4.503306
949.690000	537.000000	2239	5597.500000	4.501907
950.690000	536.000000	2170	5425.000000	4.500507
951.690000	535.000000	2053	5132.500000	4.499107
952.690000	534.000000	1937	4842.500000	4.497707
953.690000	533.000000	1926	4815.000000	4.496307
954.690000	532.000000	1989	4972.500000	4.494908
955.690000	531.000000	2962	7405.000000	4.493508
956.690000	530.000000	8120	20300.000000	4.492108
957.690000	529.000000	14433	36082.500000	4.490708
958.690000	528.000000	9295	23237.500000	4.489308
959.690000	527.000000	3850	9625.000000	4.487909
960.690000	526.000000	2092	5230.000000	4.486509
961.690000	525.000000	1650	4125.000000	4.485109
962.690000	524.000000	1581	3952.500000	4.483709
963.690000	523.000000	1544	3860.000000	4.482310
964.690000	522.000000	1573	3932.500000	4.480910
965.690000	521.000000	1532	3830.000000	4.479510
966.690000	520.000000	1497	3742.500000	4.478110
967.690000	519.000000	1523	3807.500000	4.476710
968.690000	518.000000	1530	3825.000000	4.475311
969.690000	517.000000	1559	3897.500000	4.473911
970.690000	516.000000	1544	3860.000000	4.472511
971.690000	515.000000	1510	3775.000000	4.471111
972.690000	514.000000	1512	3780.000000	4.469711
973.690000	513.000000	1525	3812.500000	4.468312
974.690000	512.000000	1518	3795.000000	4.466912
975.690000	511.000000	1511	3777.500000	4.465512
976.690000	510.000000	1489	3722.500000	4.464112
977.690000	509.000000	1524	3810.000000	4.462712
978.690000	508.000000	1503	3757.500000	4.461313
979.690000	507.000000	1512	3780.000000	4.459913
980.690000	506.000000	1508	3770.000000	4.458513
981.690000	505.000000	1515	3787.500000	4.457113
982.690000	504.000000	1491	3727.500000	4.455713
983.690000	503.000000	1501	3752.500000	4.454314
984.690000	502.000000	1529	3822.500000	4.452914
985.690000	501.000000	1498	3745.000000	4.451514
986.690000	500.000000	1518	3795.000000	4.450114
987.690000	499.000000	1551	3877.500000	4.448715
988.690000	498.000000	1544	3860.000000	4.447315
989.690000	497.000000	1537	3842.500000	4.445915
990.690000	496.000000	1549	3872.500000	4.444515
991.690000	495.000000	1484	3710.000000	4.443115
992.690000	494.000000	1505	3762.500000	4.441716
993.690000	493.000000	1498	3745.000000	4.440316
994.690000	492.000000	1545	3862.500000	4.438916
995.690000	491.000000	1577	3942.500000	4.437516
996.690000	490.000000	1544	3860.000000	4.436116
997.690000	489.000000	1522	3805.000000	4.434717
998.690000	488.000000	1570	3925.000000	4.433317
999.690000	487.000000	1561	3902.500000	4.431917
1000.690000	486.000000	1521	3802.500000	4.430517
1001.690000	485.000000	1591	3977.500000	4.429117
1002.690000	484.000000	1538	3845.000000	4.427718
1003.690000	483.000000	1526	3815.000000	4.426318
1004.690000	482.000000	1537	3842.500000	4.424918
1005.690000	481.000000	1590	3975.000000	4.423518
1006.690000	480.000000	1531	3827.500000	4.422119
1007.690000	479.000000	1511	3777.500000	4.420719
1008.690000	478.000000	1517	3792.500000	4.419319
1009.690000	477.000000	1513	3782.500000	4.417919
1010.690000	476.000000	1593	3982.500000	4.416519
1011.690000	475.000000	1531	3827.500000	4.415120
1012.690000	474.000000	1560	3900.000000	4.413720
1013.690000	473.000000	1563	3907.500000	4.412320
1014.690000	472.000000	1570	3925.000000	4.410920
1015.690000	471.000000	1524	3810.000000	4.409520
1016.690000	470.000000	1526	3815.000000	4.408121
1017.690000	469.000000	1519	3797.500000	4.406721
1018.690000	468.000000	1568	3920.000000	4.405321
1019.690000	467.000000	1553	3882.500000	4.403921
1020.690000	466.000000	1541	3852.500000	4.402521
1021.690000	465.000000	1546	3865.000000	4.401122
1022.690000	464.000000	1586	3965.000000	4.399722
1023.690000	463.000000	1567	3917.500000	4.398322
1024.690000	462.000000	1568	3920.000000	4.396922
1025.690000	461.000000	1577	3942.500000	4.395522
1026.690000	460.000000	1559	3897.500000	4.394123
1027.690000	459.000000	1579	3947.500000	4.392723
1028.690000	458.000000	1585	3962.500000	4.391323
1029.690000	457.000000	1520	3800.000000	4.389923
1030.690000	456.000000	1545	3862.500000	4.388524
1031.690000	455.000000	1550	3875.000000	4.387124
1032.690000	454.000000	1603	4007.500000	4.385724
1033.690000	453.000000	1580	3950.000000	4.384324
1034.690000	452.000000	1556	3890.000000	4.382924
1035.690000	451.000000	1596	3990.000000	4.382369
1036.690000	450.000000	1577	3942.500000	4.382183
1037.690000	449.000000	1619	4047.500000	4.381998
1038.690000	448.000000	1625	4062.500000	4.381813
1039.690000	447.000000	1622	4055.000000	4.381628
1040.690000	446.000000	1539	3847.500000	4.381442
1041.690000	445.000000	1539	3847.500000	4.381257
1042.690000	444.000000	1571	3927.500000	4.381072
1043.690000	443.000000	1591	3977.500000	4.380887
1044.690000	442.000000	1609	4022.500000	4.380701
1045.690000	441.000000	1602	4005.000000	4.380516
1046.690000	440.000000	1554	3885.000000	4.380331
1047.690000	439.000000	1550	3875.000000	4.380146
1048.690000	438.000000	1612	4030.000000	4.379961
1049.690000	437.000000	1627	4067.500000	4.379775
1050.690000	436.000000	1570	3925.000000	4.379590
1051.690000	435.000000	1619	4047.500000	4.379405
1052.690000	434.000000	1616	4040.000000	4.379220
1053.690000	433.000000	1621	4052.500000	4.379034
1054.690000	432.000000	1619	4047.500000	4.378849
1055.690000	431.000000	1551	3877.500000	4.378664
1056.690000	430.000000	1571	3927.500000	4.378479
1057.690000	429.000000	1572	3930.000000	4.378293
1058.690000	428.000000	1569	3922.500000	4.378108
1059.690000	427.000000	1596	3990.000000	4.377923
1060.690000	426.000000	1615	4037.500000	4.377738
1061.690000	425.000000	1592	3980.000000	4.377552
1062.690000	424.000000	1625	4062.500000	4.377367
1063.690000	423.000000	1594	3985.000000	4.377182
1064.690000	422.000000	1575	3937.500000	4.376997
1065.690000	421.000000	1591	3977.500000	4.376811
1066.690000	420.000000	1635	4087.500000	4.376626
1067.690000	419.000000	1586	3965.000000	4.376441
1068.690000	418.000000	1585	3962.500000	4.376256
1069.690000	417.000000	1598	3995.000000	4.376070
1070.690000	416.000000	1603	4007.500000	4.375885
1071.690000	415.000000	1617	4042.500000	4.375700
1072.690000	414.000000	1648	4120.000000	4.375515
1073.690000	413.000000	1583	3957.500000	4.375329
1074.690000	412.000000	1631	4077.500000	4.375144
1075.690000	411.000000	1667	4167.500000	4.374959
1076.690000	410.000000	1629	4072.500000	4.374774
1077.690000	409.000000	1627	4067.500000	4.374588
1078.690000	408.000000	1570	3925.000000	4.374403
1079.690000	407.000000	1632	4080.000000	4.374218
1080.690000	406.000000	1621	4052.500000	4.374033
1081.690000	405.000000	1597	3992.500000	4.373847
1082.690000	404.000000	1615	4037.500000	4.373662
1083.690000	403.000000	1616	4040.000000	4.373477
1084.690000	402.000000	1616	4040.000000	4.373292
1085.690000	401.000000	1574	3935.000000	4.373106
1086.690000	400.000000	1607	4017.500000	4.372921
1087.690000	399.000000	1621	4052.500000	4.372736
1088.690000	398.000000	1667	4167.500000	4.372551
1089.690000	397.000000	1625	4062.500000	4.372365
1090.690000	396.000000	1607	4017.500000	4.372180
1091.690000	395.000000	1633	4082.500000	4.371995
1092.690000	394.000000	1652	4130.000000	4.371810
1093.690000	393.000000	1677	4192.500000	4.371624
1094.690000	392.000000	1667	4167.500000	4.371439
1095.690000	391.000000	1703	4257.500000	4.371254
1096.690000	390.000000	1651	4127.500000	4.371069
1097.690000	389.000000	1678	4195.000000	4.370883
1098.690000	388.000000	1664	4160.000000	4.370698
1099.690000	387.000000	1633	4082.500000	4.370513
1100.690000	386.000000	1649	4122.500000	4.370328
1101.690000	385.000000	1688	4220.000000	4.370142
1102.690000	384.000000	1601	4002.500000	4.369957
1103.690000	383.000000	1695	4237.500000	4.369772
1104.690000	382.000000	1683	4207.500000	4.369587
1105.690000	381.000000	1626	4065.000000	4.369401
1106.690000	380.000000	1690	4225.000000	4.369216
1107.690000	379.000000	1640	4100.000000	4.369031
1108.690000	378.000000	1705	4262.500000	4.368846
1109.690000	377.000000	1640	4100.000000	4.368661
1110.690000	376.000000	1650	4125.000000	4.368475
1111.690000	375.000000	1630	4075.000000	4.368290
1112.690000	374.000000	1658	4145.000000	4.368105
1113.690000	373.000000	1695	4237.500000	4.367920
1114.690000	372.000000	1695	4237.500000	4.367734
1115.690000	371.000000	1698	4245.000000	4.367549
1116.690000	370.000000	1628	4070.000000	4.367364
1117.690000	369.000000	1675	4187.500000	4.367179
1118.690000	368.000000	1708	4270.000000	4.366993
1119.690000	367.000000	1643	4107.500000	4.366808
1120.690000	366.000000	1718	4295.000000	4.366623
1121.690000	365.000000	1702	4255.000000	4.366438
1122.690000	364.000000	1702	4255.000000	4.366252
1123.690000	363.000000	1674	4185.000000	4.366067
1124.690000	362.000000	1636	4090.000000	4.365882
1125.690000	361.000000	1652	4130.000000	4.365697
1126.690000	360.000000	1664	4160.000000	4.365511
1127.690000	359.000000	1682	4205.000000	4.365326
1128.690000	358.000000	1714	4285.000000	4.365141
1129.690000	357.000000	1644	4110.000000	4.364956
1130.690000	356.000000	1646	4115.000000	4.364770
1131.690000	355.000000	1727	4317.500000	4.364585
1132.690000	354.000000	1711	4277.500000	4.364400
1133.690000	353.000000	1720	4300.000000	4.364215
1134.690000	352.000000	1694	4235.000000	4.364029
1135.690000	351.000000	1729	4322.500000	4.363844
1136.690000	350.000000	1713	4282.500000	4.363659
1137.690000	349.000000	1704	4260.000000	4.363474
1138.690000	348.000000	1716	4290.000000	4.363288
1139.690000	347.000000	1708	4270.000000	4.363103
1140.690000	346.000000	1702	4255.000000	4.362918
1141.690000	345.000000	1750	4375.000000	4.362733
1142.690000	344.000000	1759	4397.500000	4.362547
1143.690000	343.000000	1765	4412.500000	4.362362
1144.690000	342.000000	1708	4270.000000	4.362177
1145.690000	341.000000	1689	4222.500000	4.361992
1146.690000	340.000000	1694	4235.000000	4.361806
1147.690000	339.000000	1752	4380.000000	4.361621
1148.690000	338.000000	1742	4355.000000	4.361436
1149.690000	337.000000	1703	4257.500000	4.361251
1150.690000	336.000000	1714	4285.000000	4.361065
1151.690000	335.000000	1799	4497.500000	4.360880
1152.690000	334.000000	1725	4312.500000	4.360695
1153.690000	333.000000	1797	4492.500000	4.360510
1154.690000	332.000000	1759	4397.500000	4.360324
1155.690000	331.000000	1735	4337.500000	4.360139
1156.690000	330.000000	1761	4402.500000	4.359954
1157.690000	329.000000	1746	4365.000000	4.359769
1158.690000	328.000000	1771	4427.500000	4.359583
1159.690000	327.000000	1752	4380.000000	4.359398
1160.690000	326.000000	1784	4460.000000	4.359213
1161.690000	325.000000	1720	4300.000000	4.359028
1162.690000	324.000000	1724	4310.000000	4.358842
1163.690000	323.000000	1738	4345.000000	4.358657
1164.690000	322.000000	1688	4220.000000	4.358472
1165.690000	321.000000	1740	4350.000000	4.358287
1166.690000	320.000000	1800	4500.000000	4.358101
1167.690000	319.000000	1743	4357.500000	4.357916
1168.690000	318.000000	1835	4587.500000	4.357731
1169.690000	317.000000	1740	4350.000000	4.357546
1170.690000	316.000000	1756	4390.000000	4.357360
1171.690000	315.000000	1763	4407.500000	4.357175
1172.690000	314.000000	1791	4477.500000	4.356990
1173.690000	313.000000	1847	4617.500000	4.356805
1174.690000	312.000000	1731	4327.500000	4.356620
1175.690000	311.000000	1869	4672.500000	4.356434
1176.690000	310.000000	1874	4685.000000	4.356249
1177.690000	309.000000	1890	4725.000000	4.356064
1178.690000	308.000000	1872	4680.000000	4.355879
1179.690000	307.000000	1876	4690.000000	4.355693
1180.690000	306.000000	1813	4532.500000	4.355508
1181.690000	305.000000	1792	4480.000000	4.355323
1182.690000	304.000000	1822	4555.000000	4.355138
1183.690000	303.000000	1844	4610.000000	4.354952
1184.690000	302.000000	1855	4637.500000	4.354767
1185.690000	301.000000	1797	4492.500000	4.354582
1186.690000	300.000000	1762	4405.000000	4.354397
1187.690000	299.000000	1757	4392.500000	4.354211
1188.690000	298.000000	1668	4170.000000	4.354026
1189.690000	297.000000	1685	4212.500000	4.353841
1190.690000	296.000000	1586	3965.000000	4.353656
1191.690000	295.000000	1530	3825.000000	4.353470
1192.690000	294.000000	1544	3860.000000	4.353285
1193.690000	293.000000	1472	3680.000000	4.353100
1194.690000	292.000000	1431	3577.500000	4.352915
1195.690000	291.000000	1407	3517.500000	4.352729
1196.690000	290.000000	1380	3450.000000	4.352544
1197.690000	289.000000	1401	3502.500000	4.352359
1198.690000	288.000000	1526	3815.000000	4.352174
1199.690000	287.000000	2428	6070.000000	4.351988
1200.690000	286.000000	3620	9050.000000	4.351803
1201.690000	285.000000	2564	6410.000000	4.351618
1202.690000	284.000000	1962	4905.000000	4.351433
1203.690000	283.000000	3768	9420.000000	4.351247
1204.690000	282.000000	5127	12817.500000	4.351062
1205.690000	281.000000	2779	6947.500000	4.350877
1206.690000	280.000000	1389	3472.500000	4.350692
1207.690000	279.000000	1220	3050.000000	4.350506
1208.690000	278.000000	1257	3142.500000	4.350321
1209.690000	277.000000	1217	3042.500000	4.350136
1210.690000	276.000000	1264	3160.000000	4.349951
1211.690000	275.000000	1252	3130.000000	4.349765
1212.690000	274.000000	1214	3035.000000	4.349580
1213.690000	273.000000	1245	3112.500000	4.349395
1214.690000	272.000000	1252	3130.000000	4.349210
1215.690000	271.000000	1230	3075.000000	4.349024
1216.690000	270.000000	1256	3140.000000	4.348839
1217.690000	269.000000	1254	3135.000000	4.348654
1218.690000	268.000000	1279	3197.500000	4.348469
1219.690000	267.000000	1305	3262.500000	4.348283
1220.690000	266.000000	1231	3077.500000	4.348098
1221.690000	265.000000	1276	3190.000000	4.347913
1222.690000	264.000000	1276	3190.000000	4.347728
1223.690000	263.000000	1263	3157.500000	4.347542
1224.690000	262.000000	1247	3117.500000	4.347357
1225.690000	261.000000	1239	3097.500000	4.347172
1226.690000	260.000000	1221	3052.500000	4.346987
1227.690000	259.000000	1259	3147.500000	4.346801
1228.690000	258.000000	1246	3115.000000	4.346616
1229.690000	257.000000	1257	3142.500000	4.346431
1230.690000	256.000000	1234	3085.000000	4.346246
1231.690000	255.000000	1271	3177.500000	4.346060
1232.690000	254.000000	1238	3095.000000	4.345875
1233.690000	253.000000	1256	3140.000000	4.345690
1234.690000	252.000000	1274	3185.000000	4.345505
1235.690000	251.000000	1267	3167.500000	4.345320
1236.690000	250.000000	1264	3160.000000	4.346196
1237.690000	249.000000	1288	3220.000000	4.347427
1238.690000	248.000000	1268	3170.000000	4.348657
1239.690000	247.000000	1289	3222.500000	4.349888
1240.690000	246.000000	1244	3110.000000	4.351118
1241.690000	245.000000	1253	3132.500000	4.352349
1242.690000	244.000000	1282	3205.000000	4.353579
1243.690000	243.000000	1273	3182.500000	4.354810
1244.690000	242.000000	1280	3200.000000	4.356040
1245.690000	241.000000	1254	3135.000000	4.357271
1246.690000	240.000000	1269	3172.500000	4.358501
1247.690000	239.000000	1268	3170.000000	4.359732
1248.690000	238.000000	1234	3085.000000	4.360963
1249.690000	237.000000	1220	3050.000000	4.362193
1250.690000	236.000000	1265	3162.500000	4.363424
1251.690000	235.000000	1247	3117.500000	4.364654
1252.690000	234.000000	1251	3127.500000	4.365885
1253.690000	233.000000	1273	3182.500000	4.367115
1254.690000	232.000000	1210	3025.000000	4.368346
1255.690000	231.000000	1237	3092.500000	4.369576
1256.690000	230.000000	1260	3150.000000	4.370807
1257.690000	229.000000	1219	3047.500000	4.372037
1258.690000	228.000000	1265	3162.500000	4.373268
1259.690000	227.000000	1260	3150.000000	4.374498
1260.690000	226.000000	1231	3077.500000	4.375729
1261.690000	225.000000	1256	3140.000000	4.376960
1262.690000	224.000000	1218	3045.000000	4.378190
1263.690000	223.000000	1232	3080.000000	4.379421
1264.690000	222.000000	1256	3140.000000	4.380651
1265.690000	221.000000	1235	3087.500000	4.381882
1266.690000	220.000000	1268	3170.000000	4.383112
1267.690000	219.000000	1263	3157.500000	4.384343
1268.690000	218.000000	1221	3052.500000	4.385573
1269.690000	217.000000	1257	3142.500000	4.386804
1270.690000	216.000000	1256	3140.000000	4.388034
1271.690000	215.000000	1236	3090.000000	4.389265
1272.690000	214.000000	1271	3177.500000	4.390495
1273.690000	213.000000	1259	3147.500000	4.391726
1274.690000	212.000000	1251	3127.500000	4.392957
1275.690000	211.000000	1274	3185.000000	4.394187
1276.690000	210.000000	1296	3240.000000	4.395418
1277.690000	209.000000	1253	3132.500000	4.396648
1278.690000	208.000000	1253	3132.500000	4.397879
1279.690000	207.000000	1285	3212.500000	4.399109
1280.690000	206.000000	1251	3127.500000	4.400340
1281.690000	205.000000	1294	3235.000000	4.401570
1282.690000	204.000000	1276	3190.000000	4.402801
1283.690000	203.000000	1281	3202.500000	4.404031
1284.690000	202.000000	1285	3212.500000	4.405262
1285.690000	201.000000	1285	3212.500000	4.406492
1286.690000	200.000000	1283	3207.500000	4.407723
1287.690000	199.000000	1294	3235.000000	4.408954
1288.690000	198.000000	1301	3252.500000	4.410184
1289.690000	197.000000	1272	3180.000000	4.411415
1290.690000	196.000000	1285	3212.500000	4.412645
1291.690000	195.000000	1239	3097.500000	4.413876
1292.690000	194.000000	1289	3222.500000	4.415106
1293.690000	193.000000	1274	3185.000000	4.416337
1294.690000	192.000000	1244	3110.000000	4.417567
1295.690000	191.000000	1279	3197.500000	4.418798
1296.690000	190.000000	1275	3187.500000	4.420028
1297.690000	189.000000	1290	3225.000000	4.421259
1298.690000	188.000000	1282	3205.000000	4.422489
1299.690000	187.000000	1304	3260.000000	4.423720
1300.690000	186.000000	1299	3247.500000	4.424951
1301.690000	185.000000	1286	3215.000000	4.426181
1302.690000	184.000000	1279	3197.500000	4.427412
1303.690000	183.000000	1282	3205.000000	4.428642
1304.690000	182.000000	1318	3295.000000	4.429873
1305.690000	181.000000	1314	3285.000000	4.431103
1306.690000	180.000000	1345	3362.500000	4.432334
1307.690000	179.000000	1303	3257.500000	4.433564
1308.690000	178.000000	1324	3310.000000	4.434795
1309.690000	177.000000	1371	3427.500000	4.436025
1310.690000	176.000000	1290	3225.000000	4.437256
1311.690000	175.000000	1372	3430.000000	4.438486
1312.690000	174.000000	1310	3275.000000	4.439717
1313.690000	173.000000	1275	3187.500000	4.440948
1314.690000	172.000000	1281	3202.500000	4.442178
1315.690000	171.000000	1283	3207.500000	4.443409
1316.690000	170.000000	1335	3337.500000	4.444639
1317.690000	169.000000	1303	3257.500000	4.445870
1318.690000	168.000000	1280	3200.000000	4.447100
1319.690000	167.000000	1312	3280.000000	4.448331
1320.690000	166.000000	1254	3135.000000	4.449561
1321.690000	165.000000	1319	3297.500000	4.450792
1322.690000	164.000000	1289	3222.500000	4.452022
1323.690000	163.000000	1288	3220.000000	4.453253
1324.690000	162.000000	1310	3275.000000	4.454483
1325.690000	161.000000	1320	3300.000000	4.455714
1326.690000	160.000000	1331	3327.500000	4.456945
1327.690000	159.000000	1294	3235.000000	4.458175
1328.690000	158.000000	1297	3242.500000	4.459406
1329.690000	157.000000	1299	3247.500000	4.460365
1330.690000	156.000000	1313	3282.500000	4.460465
1331.690000	155.000000	1335	3337.500000	4.460566
1332.690000	154.000000	1283	3207.500000	4.460666
1333.690000	153.000000	1343	3357.500000	4.460767
1334.690000	152.000000	1344	3360.000000	4.460867
1335.690000	151.000000	1355	3387.500000	4.460967
1336.690000	150.000000	1323	3307.500000	4.461068
1337.690000	149.000000	1329	3322.500000	4.461168
1338.690000	148.000000	1370	3425.000000	4.461269
1339.690000	147.000000	1314	3285.000000	4.461369
1340.690000	146.000000	1357	3392.500000	4.461470
1341.690000	145.000000	1359	3397.500000	4.461570
1342.690000	144.000000	1317	3292.500000	4.461670
1343.690000	143.000000	1357	3392.500000	4.461771
1344.690000	142.000000	1354	3385.000000	4.461871
1345.690000	141.000000	1358	3395.000000	4.461972
1346.690000	140.000000	1326	3315.000000	4.462072
1347.690000	139.000000	1367	3417.500000	4.462172
1348.690000	138.000000	1354	3385.000000	4.462273
1349.690000	137.000000	1310	3275.000000	4.462373
1350.690000	136.000000	1350	3375.000000	4.462474
1351.690000	135.000000	1334	3335.000000	4.462574
1352.690000	134.000000	1370	3425.000000	4.462675
1353.690000	133.000000	1338	3345.000000	4.462775
1354.690000	132.000000	1307	3267.500000	4.462875
1355.690000	131.000000	1342	3355.000000	4.462976
1356.690000	130.000000	1337	3342.500000	4.463076
1357.690000	129.000000	1365	3412.500000	4.463177
1358.690000	128.000000	1337	3342.500000	4.463277
1359.690000	127.000000	1335	3337.500000	4.463378
1360.690000	126.000000	1371	3427.500000	4.463478
1361.690000	125.000000	1368	3420.000000	4.463578
1362.690000	124.000000	1356	3390.000000	4.463679
1363.690000	123.000000	1382	3455.000000	4.463779
1364.690000	122.000000	1371	3427.500000	4.463880
1365.690000	121.000000	1378	3445.000000	4.463980
1366.690000	120.000000	1380	3450.000000	4.464080
1367.690000	119.000000	1332	3330.000000	4.464181
1368.690000	118.000000	1388	3470.000000	4.464281
1369.690000	117.000000	1315	3287.500000	4.464382
1370.690000	116.000000	1393	3482.500000	4.464482
1371.690000	115.000000	1390	3475.000000	4.464583
1372.690000	114.000000	1392	3480.000000	4.464683
1373.690000	113.000000	1411	3527.500000	4.464783
1374.690000	112.000000	1314	3285.000000	4.464884
1375.690000	111.000000	1346	3365.000000	4.464984
1376.690000	110.000000	1396	3490.000000	4.465085
1377.690000	109.000000	1381	3452.500000	4.465185
1378.690000	108.000000	1393	3482.500000	4.465285
1379.690000	107.000000	1390	3475.000000	4.465386
1380.690000	106.000000	1402	3505.000000	4.465486
1381.690000	105.000000	1381	3452.500000	4.465587
1382.690000	104.000000	1387	3467.500000	4.465687
1383.690000	103.000000	1404	3510.000000	4.465788
1384.690000	102.000000	1380	3450.000000	4.465888
1385.690000	101.000000	1434	3585.000000	4.465988
1386.690000	100.000000	1440	3600.000000	4.466089
1387.690000	99.000000	1441	3602.500000	4.466189
1388.690000	98.000000	1473	3682.500000	4.466290
1389.690000	97.000000	1479	3697.500000	4.466390
1390.690000	96.000000	1437	3592.500000	4.466491
1391.690000	95.000000	1439	3597.500000	4.466591
1392.690000	94.000000	1413	3532.500000	4.466691
1393.690000	93.000000	1437	3592.500000	4.466792
1394.690000	92.000000	1527	3817.500000	4.466892
1395.690000	91.000000	1529	3822.500000	4.466993
1396.690000	90.000000	1547	3867.500000	4.467093
1397.690000	89.000000	1438	3595.000000	4.467193
1398.690000	88.000000	1401	3502.500000	4.467294
1399.690000	87.000000	1332	3330.000000	4.467394
1400.690000	86.000000	1363	3407.500000	4.467495
1401.690000	85.000000	1352	3380.000000	4.467595
1402.690000	84.000000	1315	3287.500000	4.467696
1403.690000	83.000000	1349	3372.500000	4.467796
1404.690000	82.000000	1351	3377.500000	4.467896
1405.690000	81.000000	1356	3390.000000	4.467997
1406.690000	80.000000	1343	3357.500000	4.468097
1407.690000	79.000000	1351	3377.500000	4.468198
1408.690000	78.000000	1394	3485.000000	4.468298
1409.690000	77.000000	1342	3355.000000	4.468399
1410.690000	76.000000	1333	3332.500000	4.468499
1411.690000	75.000000	1361	3402.500000	4.468599
1412.690000	74.000000	1323	3307.500000	4.468700
1413.690000	73.000000	1382	3455.000000	4.468800
1414.690000	72.000000	1386	3465.000000	4.468901
1415.690000	71.000000	1358	3395.000000	4.469001
1416.690000	70.000000	1341	3352.500000	4.469101
1417.690000	69.000000	1385	3462.500000	4.469202
1418.690000	68.000000	1360	3400.000000	4.469302
1419.690000	67.000000	1364	3410.000000	4.469403
1420.690000	66.000000	1323	3307.500000	4.469503
1421.690000	65.000000	1317	3292.500000	4.469604
1422.690000	64.000000	1315	3287.500000	4.469704
1423.690000	63.000000	1306	3265.000000	4.469804
1424.690000	62.000000	1335	3337.500000	4.469905
1425.690000	61.000000	1311	3277.500000	4.470005
1426.690000	60.000000	1344	3360.000000	4.470106
1427.690000	59.000000	1352	3380.000000	4.470206
1428.690000	58.000000	1345	3362.500000	4.470306
1429.690000	57.000000	1420	3550.000000	4.470407
1430.690000	56.000000	1463	3657.500000	4.470507
1431.690000	55.000000	1593	3982.500000	4.470608
1432.690000	54.000000	1812	4530.000000	4.470708
1433.690000	53.000000	1760	4400.000000	4.470809
1434.690000	52.000000	1667	4167.500000	4.470909
1435.690000	51.000000	1334	3335.000000	4.471009
1436.690000	50.000000	1204	3010.000000	4.471110
1437.690000	49.000000	1201	3002.500000	4.471210
1438.690000	48.000000	1160	2900.000000	4.471311
1439.690000	47.000000	1169	2922.500000	4.471411
1440.690000	46.000000	1153	2882.500000	4.471512
1441.690000	45.000000	1125	2812.500000	4.471612
1442.690000	44.000000	1142	2855.000000	4.471712
1443.690000	43.000000	1161	2902.500000	4.471813
1444.690000	42.000000	1152	2880.000000	4.471913
1445.690000	41.000000	1148	2870.000000	4.472014
1446.690000	40.000000	1141	2852.500000	4.472114
1447.690000	39.000000	1114	2785.000000	4.472214
1448.690000	38.000000	1123	2807.500000	4.472315
1449.690000	37.000000	1103	2757.500000	4.472415
1450.690000	36.000000	1162	2905.000000	4.472516
1451.690000	35.000000	1111	2777.500000	4.472616
1452.690000	34.000000	1112	2780.000000	4.472717
1453.690000	33.000000	1122	2805.000000	4.472817
1454.690000	32.000000	1122	2805.000000	4.472917
1455.690000	31.000000	1165	2912.500000	4.473018
1456.690000	30.000000	1116	2790.000000	4.473118
1457.690000	29.000000	1157	2892.500000	4.473219
1458.690000	28.000000	1131	2827.500000	4.473319
1459.690000	27.000000	1143	2857.500000	4.473419
1460.690000	26.000000	1218	3045.000000	4.473520
1461.690000	25.000000	1200	3000.000000	4.473620
1462.690000	24.000000	1235	3087.500000	4.473721
1463.690000	23.000000	1235	3087.500000	4.473727
1464.690000	22.000000	1206	3015.000000	4.473727
1465.690000	21.000000	1232	3080.000000	4.473727
1466.690000	20.000000	1136	2840.000000	4.473727
1467.690000	19.000000	1142	2855.000000	4.473727
1468.690000	18.000000	1105	2762.500000	4.473727
1469.690000	17.000000	1156	2890.000000	4.473727
1470.690000	16.000000	1157	2892.500000	4.473727
1471.690000	15.000000	1164	2910.000000	4.473727
1472.690000	14.000000	1172	2930.000000	4.473727
1473.690000	13.000000	1142	2855.000000	4.473727
1474.690000	12.000000	1153	2882.500000	4.473727
1475.690000	11.000000	1167	2917.500000	4.473727
1476.690000	10.000000	1212	3030.000000	4.473727
1477.690000	9.000000	1185	2962.500000	4.473727
1478.690000	8.000000	1172	2930.000000	4.473727
1479.690000	7.000000	1161	2902.500000	4.473727
1480.690000	6.000000	1139	2847.500000	4.473727
1481.690000	5.000000	1129	2822.500000	4.473727
1482.690000	4.000000	1138	2845.000000	4.473727
1483.690000	3.000000	1173	2932.500000	4.473727
1484.690000	2.000000	1164	2910.000000	4.473727
1485.690000	1.000000	1106	2765.000000	4.473727
1486.690000	0.000000	1067	2667.500000	4.473727
